# time (s)	intensity
0.000000	1.129694
0.010000	1.210378
0.020000	0.870074
0.030000	1.089747
0.040000	0.968537
0.050000	1.050979
0.060000	0.876227
0.070000	1.176037
0.080000	1.014116
0.090000	0.878922
0.100000	1.036834
0.110000	1.035093
0.120000	0.895876
0.130000	1.159155
0.140000	1.205572
0.150000	0.869278
0.160000	1.008653
0.170000	0.993675
0.180000	0.929647
0.190000	0.987358
0.200000	0.991860
0.210000	0.901394
0.220000	1.159553
0.230000	0.915699
0.240000	0.586146
0.250000	1.005171
0.260000	1.074355
0.270000	0.955525
0.280000	1.010308
0.290000	0.994701
0.300000	0.898532
0.310000	0.994038
0.320000	0.949090
0.330000	1.159531
0.340000	0.984081
0.350000	0.950833
0.360000	0.933329
0.370000	1.025769
0.380000	1.139144
0.390000	0.906465
0.400000	0.892692
0.410000	1.051203
0.420000	1.050450
0.430000	1.112345
0.440000	0.916200
0.450000	0.924216
0.460000	1.110638
0.470000	0.865902
0.480000	0.918485
0.490000	0.944824
0.500000	1.150962
0.510000	1.032744
0.520000	0.974768
0.530000	0.945096
0.540000	1.049425
0.550000	1.026044
0.560000	0.953311
0.570000	0.910700
0.580000	1.175575
0.590000	1.063374
0.600000	0.964080
0.610000	0.832598
0.620000	1.124113
0.630000	0.905307
0.640000	1.022045
0.650000	0.912014
0.660000	0.907443
0.670000	0.942000
0.680000	1.082475
0.690000	1.148432
0.700000	0.977077
0.710000	0.889332
0.720000	1.036357
0.730000	0.888208
0.740000	1.022359
0.750000	0.930801
0.760000	1.031239
0.770000	1.071443
0.780000	0.824036
0.790000	1.152908
0.800000	0.904854
0.810000	0.864382
0.820000	0.956399
0.830000	0.893005
0.840000	0.810676
0.850000	0.907244
0.860000	0.771132
0.870000	0.948808
0.880000	0.892798
0.890000	0.879523
0.900000	0.984355
0.910000	1.036765
0.920000	1.133065
0.930000	1.094921
0.940000	0.917317
0.950000	0.853657
0.960000	0.847055
0.970000	1.053823
0.980000	1.118754
0.990000	0.825755
1.000000	0.893881
1.010000	0.896972
1.020000	1.041009
1.030000	1.038554
1.040000	0.849103
1.050000	0.936114
1.060000	1.170064
1.070000	1.002501
1.080000	1.025566
1.090000	0.951836
1.100000	0.967161
1.110000	0.788073
1.120000	0.958129
1.130000	1.010123
1.140000	1.022198
1.150000	1.102549
1.160000	1.029323
1.170000	1.039309
1.180000	0.915751
1.190000	0.930760
1.200000	0.937201
1.210000	0.963897
1.220000	0.869616
1.230000	1.053846
1.240000	0.900943
1.250000	0.903297
1.260000	0.933430
1.270000	0.955548
1.280000	1.098527
1.290000	0.892896
1.300000	1.074031
1.310000	1.197108
1.320000	0.879117
1.330000	0.924741
1.340000	1.069851
1.350000	1.094791
1.360000	0.953765
1.370000	1.173758
1.380000	0.984142
1.390000	0.906636
1.400000	0.842956
1.410000	1.142343
1.420000	0.916948
1.430000	0.946726
1.440000	0.956577
1.450000	1.074221
1.460000	0.857555
1.470000	0.978586
1.480000	1.040471
1.490000	1.037832
1.500000	1.069362
1.510000	0.943516
1.520000	0.830476
1.530000	0.978331
1.540000	0.954119
1.550000	0.966400
1.560000	1.016799
1.570000	0.925731
1.580000	1.026653
1.590000	0.991308
1.600000	0.881578
1.610000	1.056829
1.620000	1.058772
1.630000	0.879281
1.640000	0.939039
1.650000	1.006074
1.660000	0.915216
1.670000	1.258275
1.680000	0.856060
1.690000	0.902148
1.700000	0.834729
1.710000	0.931048
1.720000	1.054782
1.730000	0.901775
1.740000	0.976737
1.750000	1.108723
1.760000	1.004113
1.770000	0.744538
1.780000	1.120681
1.790000	1.180546
1.800000	0.956651
1.810000	0.804326
1.820000	1.046586
1.830000	0.896873
1.840000	0.984742
1.850000	1.042458
1.860000	0.982781
1.870000	1.011991
1.880000	0.889279
1.890000	0.992825
1.900000	1.085949
1.910000	1.043967
1.920000	0.945390
1.930000	1.126474
1.940000	0.901097
1.950000	1.075570
1.960000	1.052756
1.970000	1.072241
1.980000	1.086129
1.990000	1.150188
2.000000	1.096651
2.010000	1.002628
2.020000	0.865333
2.030000	0.944618
2.040000	1.025142
2.050000	0.944244
2.060000	1.080310
2.070000	1.066746
2.080000	1.086489
2.090000	0.960991
2.100000	1.051681
2.110000	0.860224
2.120000	0.943974
2.130000	1.070923
2.140000	0.998983
2.150000	0.885292
2.160000	1.007529
2.170000	0.963874
2.180000	1.056785
2.190000	0.961585
2.200000	1.046652
2.210000	0.985679
2.220000	1.202683
2.230000	1.029137
2.240000	1.171732
2.250000	1.184490
2.260000	0.966538
2.270000	1.116194
2.280000	0.980321
2.290000	1.076264
2.300000	0.890999
2.310000	1.230194
2.320000	0.905890
2.330000	0.957601
2.340000	1.011586
2.350000	0.998054
2.360000	0.953922
2.370000	1.141081
2.380000	0.974524
2.390000	0.791920
2.400000	1.017810
2.410000	1.108943
2.420000	0.976877
2.430000	0.890263
2.440000	1.109259
2.450000	0.847792
2.460000	1.083360
2.470000	1.081192
2.480000	1.017891
2.490000	1.035129
2.500000	0.855169
2.510000	1.165581
2.520000	1.127704
2.530000	0.824088
2.540000	0.935877
2.550000	0.922921
2.560000	1.045375
2.570000	1.103968
2.580000	1.037585
2.590000	1.055905
2.600000	1.007153
2.610000	1.123841
2.620000	0.891372
2.630000	0.999789
2.640000	0.956772
2.650000	0.787479
2.660000	1.019250
2.670000	1.147996
2.680000	1.032067
2.690000	1.080367
2.700000	1.002850
2.710000	1.095760
2.720000	1.061335
2.730000	0.962165
2.740000	1.126635
2.750000	1.031959
2.760000	1.167122
2.770000	1.051151
2.780000	1.081443
2.790000	1.048182
2.800000	0.782550
2.810000	0.978376
2.820000	1.115884
2.830000	0.999665
2.840000	1.209011
2.850000	0.995569
2.860000	0.936785
2.870000	0.962107
2.880000	1.038099
2.890000	1.136264
2.900000	1.025225
2.910000	1.160648
2.920000	0.936781
2.930000	0.907750
2.940000	1.018819
2.950000	1.155869
2.960000	1.024295
2.970000	0.831783
2.980000	1.056199
2.990000	1.037424
3.000000	1.028961
3.010000	1.086842
3.020000	0.976287
3.030000	1.004138
3.040000	1.087205
3.050000	1.018005
3.060000	0.850521
3.070000	0.922007
3.080000	1.024997
3.090000	1.017729
3.100000	1.016998
3.110000	0.967991
3.120000	0.898950
3.130000	1.049698
3.140000	1.036230
3.150000	0.959218
3.160000	0.826369
3.170000	0.861380
3.180000	0.956640
3.190000	1.059381
3.200000	0.938103
3.210000	1.040991
3.220000	0.934412
3.230000	1.086672
3.240000	1.167689
3.250000	0.949559
3.260000	0.996123
3.270000	1.177725
3.280000	0.947278
3.290000	1.021404
3.300000	0.915141
3.310000	1.042026
3.320000	1.088442
3.330000	0.877710
3.340000	1.150075
3.350000	0.963684
3.360000	1.131894
3.370000	0.893500
3.380000	0.934569
3.390000	1.070442
3.400000	1.175322
3.410000	0.987690
3.420000	1.080523
3.430000	1.031085
3.440000	0.936397
3.450000	1.049629
3.460000	0.879325
3.470000	1.139898
3.480000	1.095995
3.490000	0.896426
3.500000	0.911443
3.510000	1.070333
3.520000	0.994082
3.530000	1.054657
3.540000	0.927297
3.550000	1.039836
3.560000	1.118988
3.570000	1.060478
3.580000	1.017188
3.590000	1.165288
3.600000	1.069709
3.610000	1.032491
3.620000	0.930979
3.630000	1.123409
3.640000	0.890654
3.650000	0.958252
3.660000	0.908358
3.670000	0.903453
3.680000	0.949779
3.690000	0.864664
3.700000	1.085507
3.710000	0.945532
3.720000	0.993013
3.730000	1.001796
3.740000	0.912678
3.750000	0.910918
3.760000	0.996372
3.770000	1.076372
3.780000	0.849440
3.790000	0.877431
3.800000	0.797905
3.810000	0.963742
3.820000	1.111481
3.830000	1.129803
3.840000	0.840494
3.850000	0.809465
3.860000	0.958382
3.870000	0.961951
3.880000	0.868406
3.890000	0.997873
3.900000	1.031651
3.910000	1.083010
3.920000	1.127076
3.930000	0.988635
3.940000	0.849891
3.950000	0.817458
3.960000	1.007094
3.970000	0.979136
3.980000	0.974511
3.990000	0.877599
4.000000	0.877342
4.010000	0.954440
4.020000	1.015026
4.030000	1.034597
4.040000	0.837162
4.050000	0.910274
4.060000	1.145490
4.070000	1.173921
4.080000	0.973228
4.090000	1.088530
4.100000	1.046029
4.110000	1.050564
4.120000	0.973761
4.130000	1.220730
4.140000	1.119031
4.150000	1.026857
4.160000	1.121310
4.170000	1.043169
4.180000	1.073282
4.190000	1.028851
4.200000	1.095031
4.210000	1.084820
4.220000	0.956712
4.230000	1.143063
4.240000	1.060122
4.250000	1.140281
4.260000	0.834536
4.270000	0.953700
4.280000	0.990668
4.290000	1.045726
4.300000	1.035662
4.310000	1.134574
4.320000	1.029433
4.330000	0.878477
4.340000	0.917635
4.350000	0.959449
4.360000	0.928497
4.370000	1.058672
4.380000	1.128534
4.390000	0.927106
4.400000	1.077571
4.410000	1.015286
4.420000	1.169128
4.430000	1.013641
4.440000	1.205861
4.450000	1.137518
4.460000	0.824768
4.470000	1.000065
4.480000	0.857397
4.490000	0.997686
4.500000	1.004176
4.510000	1.013534
4.520000	1.014433
4.530000	1.028107
4.540000	1.012061
4.550000	1.069764
4.560000	1.140375
4.570000	1.015653
4.580000	1.019186
4.590000	0.887668
4.600000	0.987186
4.610000	1.164309
4.620000	1.092441
4.630000	1.133110
4.640000	1.011697
4.650000	1.221400
4.660000	0.944773
4.670000	1.062815
4.680000	1.049289
4.690000	0.957265
4.700000	0.878273
4.710000	0.940018
4.720000	0.957677
4.730000	1.062786
4.740000	0.951765
4.750000	0.966680
4.760000	1.016239
4.770000	0.929911
4.780000	1.044302
4.790000	1.058484
4.800000	1.020778
4.810000	0.971084
4.820000	0.996718
4.830000	0.974614
4.840000	0.895292
4.850000	0.978887
4.860000	1.010676
4.870000	0.797029
4.880000	0.949131
4.890000	0.989748
4.900000	1.075951
4.910000	1.146955
4.920000	1.014909
4.930000	0.869686
4.940000	0.967087
4.950000	1.294383
4.960000	1.246923
4.970000	1.054622
4.980000	0.895693
4.990000	1.176936
5.000000	1.005602
5.010000	1.028291
5.020000	0.910018
5.030000	1.046831
5.040000	0.906698
5.050000	1.011825
5.060000	0.926967
5.070000	0.916323
5.080000	0.896548
5.090000	0.924165
5.100000	1.130919
5.110000	0.898084
5.120000	1.065471
5.130000	0.926055
5.140000	0.892082
5.150000	0.930261
5.160000	0.806668
5.170000	0.968145
5.180000	1.117691
5.190000	0.878393
5.200000	1.079507
5.210000	1.122871
5.220000	1.045466
5.230000	1.097759
5.240000	0.887285
5.250000	0.968746
5.260000	1.062388
5.270000	0.938817
5.280000	0.772300
5.290000	0.991286
5.300000	1.017131
5.310000	1.245732
5.320000	0.816268
5.330000	0.983628
5.340000	1.018689
5.350000	0.864841
5.360000	0.925020
5.370000	0.943411
5.380000	0.968740
5.390000	1.047817
5.400000	0.959544
5.410000	0.874898
5.420000	1.054777
5.430000	1.148548
5.440000	1.032042
5.450000	0.971509
5.460000	1.009433
5.470000	1.084292
5.480000	0.923574
5.490000	0.897493
5.500000	1.149603
5.510000	0.949988
5.520000	0.888896
5.530000	0.915821
5.540000	1.029453
5.550000	1.071221
5.560000	0.867405
5.570000	0.991680
5.580000	0.939415
5.590000	0.919029
5.600000	0.773836
5.610000	0.858737
5.620000	1.029765
5.630000	1.017290
5.640000	0.994498
5.650000	1.103996
5.660000	0.858168
5.670000	0.828095
5.680000	1.023114
5.690000	1.019125
5.700000	0.946606
5.710000	1.011990
5.720000	1.024177
5.730000	1.088223
5.740000	0.856915
5.750000	1.015775
5.760000	0.790031
5.770000	0.885548
5.780000	0.977099
5.790000	0.901837
5.800000	0.993115
5.810000	0.996187
5.820000	1.000447
5.830000	1.037285
5.840000	1.013611
5.850000	0.949338
5.860000	0.955787
5.870000	1.000835
5.880000	0.904376
5.890000	0.991272
5.900000	0.921556
5.910000	0.912472
5.920000	1.050159
5.930000	1.039355
5.940000	1.078417
5.950000	0.867254
5.960000	0.958220
5.970000	0.932989
5.980000	1.106328
5.990000	0.978927
6.000000	1.017738
6.010000	1.024725
6.020000	0.942739
6.030000	0.873167
6.040000	0.976998
6.050000	1.028218
6.060000	1.030171
6.070000	0.892916
6.080000	0.974738
6.090000	1.053414
6.100000	1.097805
6.110000	0.887326
6.120000	0.950583
6.130000	1.020653
6.140000	0.901926
6.150000	0.699433
6.160000	0.909611
6.170000	0.988180
6.180000	1.009102
6.190000	0.963139
6.200000	1.060057
6.210000	1.064096
6.220000	1.122314
6.230000	1.193058
6.240000	1.081170
6.250000	0.786635
6.260000	0.861949
6.270000	1.065980
6.280000	1.090954
6.290000	1.029304
6.300000	1.104994
6.310000	0.940682
6.320000	0.953036
6.330000	1.070172
6.340000	1.064171
6.350000	1.149487
6.360000	1.053440
6.370000	0.996209
6.380000	1.114444
6.390000	0.833153
6.400000	1.107990
6.410000	0.933316
6.420000	0.899329
6.430000	0.997395
6.440000	0.980878
6.450000	1.137204
6.460000	1.032913
6.470000	0.959219
6.480000	1.009165
6.490000	0.888427
6.500000	1.085401
6.510000	0.997926
6.520000	0.945539
6.530000	0.977462
6.540000	0.987880
6.550000	0.905752
6.560000	0.984272
6.570000	0.944168
6.580000	0.859992
6.590000	0.926131
6.600000	0.838740
6.610000	0.767282
6.620000	0.834099
6.630000	0.989731
6.640000	0.825235
6.650000	1.084599
6.660000	1.060408
6.670000	1.223571
6.680000	0.927281
6.690000	1.205875
6.700000	1.083265
6.710000	1.111372
6.720000	0.926453
6.730000	0.927646
6.740000	1.091719
6.750000	1.036561
6.760000	0.879833
6.770000	0.819259
6.780000	0.866435
6.790000	0.892844
6.800000	1.138439
6.810000	1.126541
6.820000	0.928238
6.830000	0.958380
6.840000	1.056967
6.850000	0.965488
6.860000	1.034765
6.870000	1.042172
6.880000	1.030421
6.890000	1.081614
6.900000	1.125776
6.910000	1.248528
6.920000	0.968747
6.930000	1.165360
6.940000	0.852700
6.950000	1.009776
6.960000	0.862179
6.970000	1.008150
6.980000	1.107500
6.990000	0.959855
7.000000	1.118575
7.010000	1.005301
7.020000	1.202646
7.030000	1.128512
7.040000	1.139599
7.050000	0.992698
7.060000	1.014935
7.070000	1.022105
7.080000	0.956366
7.090000	0.952947
7.100000	1.125563
7.110000	0.918346
7.120000	0.939035
7.130000	1.015587
7.140000	1.025280
7.150000	0.996999
7.160000	1.172235
7.170000	1.280336
7.180000	1.133932
7.190000	1.149475
7.200000	0.978692
7.210000	0.970472
7.220000	0.924299
7.230000	0.942284
7.240000	0.858981
7.250000	0.954543
7.260000	1.003048
7.270000	1.057512
7.280000	0.877324
7.290000	1.027840
7.300000	1.051589
7.310000	0.920211
7.320000	1.203750
7.330000	0.848313
7.340000	0.965413
7.350000	0.979472
7.360000	0.971994
7.370000	1.004801
7.380000	0.982927
7.390000	1.054105
7.400000	0.930609
7.410000	1.028926
7.420000	0.960138
7.430000	1.005508
7.440000	1.148828
7.450000	0.892939
7.460000	0.925917
7.470000	1.091287
7.480000	0.869907
7.490000	1.078358
7.500000	0.906936
7.510000	1.012801
7.520000	0.973720
7.530000	0.859047
7.540000	0.999462
7.550000	0.991741
7.560000	0.998267
7.570000	1.114397
7.580000	1.022704
7.590000	0.976063
7.600000	1.136639
7.610000	1.021318
7.620000	1.200307
7.630000	1.063872
7.640000	1.012482
7.650000	0.688396
7.660000	1.158762
7.670000	1.099235
7.680000	1.112043
7.690000	1.205106
7.700000	0.957001
7.710000	0.808884
7.720000	1.076227
7.730000	1.000257
7.740000	0.964523
7.750000	1.082758
7.760000	0.790811
7.770000	1.154214
7.780000	1.015848
7.790000	1.044331
7.800000	1.029850
7.810000	0.968903
7.820000	0.891357
7.830000	1.048476
7.840000	1.014196
7.850000	1.067393
7.860000	0.981706
7.870000	0.878239
7.880000	1.030104
7.890000	1.109883
7.900000	1.167174
7.910000	1.129740
7.920000	1.059855
7.930000	1.133408
7.940000	1.051534
7.950000	1.069001
7.960000	1.026794
7.970000	1.066665
7.980000	0.928823
7.990000	0.951445
8.000000	0.983917
8.010000	1.022365
8.020000	1.024608
8.030000	0.922812
8.040000	1.122687
8.050000	0.881310
8.060000	0.856991
8.070000	1.112198
8.080000	1.093024
8.090000	1.051522
8.100000	1.030959
8.110000	1.039502
8.120000	0.992871
8.130000	1.209986
8.140000	0.877301
8.150000	0.942399
8.160000	0.752518
8.170000	0.960263
8.180000	0.977277
8.190000	1.023832
8.200000	0.979864
8.210000	0.840720
8.220000	1.026592
8.230000	1.042491
8.240000	0.914657
8.250000	1.034960
8.260000	0.852343
8.270000	1.188835
8.280000	0.963376
8.290000	0.957738
8.300000	0.881482
8.310000	0.953919
8.320000	0.977296
8.330000	0.960913
8.340000	1.001736
8.350000	1.029473
8.360000	0.836466
8.370000	1.122513
8.380000	0.949430
8.390000	0.950033
8.400000	1.043158
8.410000	0.932938
8.420000	0.884221
8.430000	1.113410
8.440000	0.999379
8.450000	0.970308
8.460000	1.009490
8.470000	0.748722
8.480000	1.038074
8.490000	0.985709
8.500000	1.147750
8.510000	0.967468
8.520000	0.995885
8.530000	0.986481
8.540000	0.869569
8.550000	0.965047
8.560000	1.050372
8.570000	1.005734
8.580000	1.098997
8.590000	1.055575
8.600000	1.014785
8.610000	0.911018
8.620000	1.118617
8.630000	0.924649
8.640000	1.061529
8.650000	1.086494
8.660000	1.028395
8.670000	1.139943
8.680000	0.894281
8.690000	0.993088
8.700000	0.980196
8.710000	1.021855
8.720000	1.019597
8.730000	0.921996
8.740000	1.029371
8.750000	1.190167
8.760000	1.083933
8.770000	0.926764
8.780000	0.846635
8.790000	1.029581
8.800000	0.864422
8.810000	0.867213
8.820000	1.034939
8.830000	1.049775
8.840000	1.016340
8.850000	0.971931
8.860000	0.958718
8.870000	0.978918
8.880000	0.986640
8.890000	1.172792
8.900000	0.994232
8.910000	0.995544
8.920000	1.000330
8.930000	1.039083
8.940000	0.995045
8.950000	0.990758
8.960000	1.086295
8.970000	0.977051
8.980000	0.977620
8.990000	1.055811
9.000000	0.969890
9.010000	0.827584
9.020000	1.025159
9.030000	1.111771
9.040000	1.039452
9.050000	1.022414
9.060000	1.001363
9.070000	1.103132
9.080000	1.038917
9.090000	0.981900
9.100000	1.056573
9.110000	0.889849
9.120000	1.028135
9.130000	0.799805
9.140000	1.050131
9.150000	1.246833
9.160000	1.033687
9.170000	0.993603
9.180000	1.081243
9.190000	0.910876
9.200000	1.093583
9.210000	1.226997
9.220000	1.017873
9.230000	1.035828
9.240000	0.981361
9.250000	1.002736
9.260000	0.971084
9.270000	0.925582
9.280000	0.890480
9.290000	1.016483
9.300000	1.062724
9.310000	1.046843
9.320000	1.103475
9.330000	1.093576
9.340000	1.060184
9.350000	0.938635
9.360000	1.041388
9.370000	1.027342
9.380000	0.937105
9.390000	0.958003
9.400000	0.979011
9.410000	0.990057
9.420000	1.045178
9.430000	1.039755
9.440000	1.080881
9.450000	1.096973
9.460000	0.901569
9.470000	1.100367
9.480000	1.017232
9.490000	1.100772
9.500000	0.934316
9.510000	0.954982
9.520000	1.065664
9.530000	1.086250
9.540000	0.933817
9.550000	0.953534
9.560000	1.065231
9.570000	0.902302
9.580000	1.163445
9.590000	1.022102
9.600000	1.071875
9.610000	1.081531
9.620000	0.938986
9.630000	0.835002
9.640000	0.922796
9.650000	0.924181
9.660000	0.918756
9.670000	0.757576
9.680000	1.176958
9.690000	0.871464
9.700000	1.094752
9.710000	0.984311
9.720000	1.007094
9.730000	1.026305
9.740000	0.862109
9.750000	0.891192
9.760000	1.059477
9.770000	1.154488
9.780000	1.255731
9.790000	1.137265
9.800000	0.913583
9.810000	1.011124
9.820000	1.084920
9.830000	0.913665
9.840000	1.002910
9.850000	1.081412
9.860000	0.937988
9.870000	0.972312
9.880000	0.989307
9.890000	1.130384
9.900000	1.077134
9.910000	0.977944
9.920000	1.091511
9.930000	1.048735
9.940000	1.084970
9.950000	1.077585
9.960000	0.997292
9.970000	1.043348
9.980000	0.923286
9.990000	1.093272
10.000000	1.156970
10.010000	1.035661
10.020000	1.048625
10.030000	0.989035
10.040000	1.237477
10.050000	0.972708
10.060000	1.049586
10.070000	1.029575
10.080000	0.960014
10.090000	0.923982
10.100000	0.955208
10.110000	1.022288
10.120000	0.916730
10.130000	1.073969
10.140000	1.001305
10.150000	1.057599
10.160000	1.052452
10.170000	0.953416
10.180000	1.080037
10.190000	1.106708
10.200000	0.969339
10.210000	1.057420
10.220000	1.126929
10.230000	0.946544
10.240000	1.060542
10.250000	0.988813
10.260000	0.872796
10.270000	1.035521
10.280000	1.053777
10.290000	1.161060
10.300000	1.002391
10.310000	0.872206
10.320000	1.156745
10.330000	1.202212
10.340000	0.961588
10.350000	0.823532
10.360000	1.058325
10.370000	0.986338
10.380000	0.925530
10.390000	1.086619
10.400000	0.850862
10.410000	0.999208
10.420000	1.046211
10.430000	1.018049
10.440000	0.959799
10.450000	0.894437
10.460000	0.884302
10.470000	0.933526
10.480000	1.073118
10.490000	0.857307
10.500000	0.923088
10.510000	0.979194
10.520000	1.050561
10.530000	1.022248
10.540000	0.745358
10.550000	1.183914
10.560000	0.950792
10.570000	1.154076
10.580000	0.839527
10.590000	1.073360
10.600000	1.090472
10.610000	0.930784
10.620000	1.155657
10.630000	1.064583
10.640000	1.005528
10.650000	1.064264
10.660000	1.001775
10.670000	1.023558
10.680000	1.064859
10.690000	0.734442
10.700000	0.880658
10.710000	0.830939
10.720000	1.038488
10.730000	0.986494
10.740000	1.015626
10.750000	0.967444
10.760000	1.111554
10.770000	1.026004
10.780000	0.995020
10.790000	0.956799
10.800000	1.077508
10.810000	0.998086
10.820000	0.939447
10.830000	1.012931
10.840000	1.065478
10.850000	1.183905
10.860000	0.884730
10.870000	0.891996
10.880000	0.833695
10.890000	0.748958
10.900000	0.991218
10.910000	0.793805
10.920000	1.057014
10.930000	0.915515
10.940000	0.985092
10.950000	1.033056
10.960000	0.979473
10.970000	0.887307
10.980000	0.895926
10.990000	0.914095
11.000000	0.996185
11.010000	1.044312
11.020000	0.986970
11.030000	1.035582
11.040000	1.029921
11.050000	0.896708
11.060000	0.962875
11.070000	0.977308
11.080000	1.144318
11.090000	0.848001
11.100000	0.957410
11.110000	1.024948
11.120000	1.002586
11.130000	1.001273
11.140000	0.933581
11.150000	1.002869
11.160000	0.867413
11.170000	0.901269
11.180000	0.949211
11.190000	0.826320
11.200000	1.056887
11.210000	0.835134
11.220000	0.937568
11.230000	0.842538
11.240000	0.871197
11.250000	1.175402
11.260000	0.948619
11.270000	1.139021
11.280000	1.039493
11.290000	0.994600
11.300000	0.803181
11.310000	1.179099
11.320000	1.106718
11.330000	0.991559
11.340000	1.148187
11.350000	0.945076
11.360000	1.037096
11.370000	1.006790
11.380000	1.100259
11.390000	1.042698
11.400000	0.933940
11.410000	1.136110
11.420000	1.010619
11.430000	1.156989
11.440000	1.051797
11.450000	1.072755
11.460000	1.079301
11.470000	0.928852
11.480000	0.771237
11.490000	1.076221
11.500000	0.859340
11.510000	1.071742
11.520000	0.889622
11.530000	0.928272
11.540000	1.119804
11.550000	1.019943
11.560000	0.909297
11.570000	0.830622
11.580000	0.928012
11.590000	0.919613
11.600000	0.911889
11.610000	0.958580
11.620000	0.975962
11.630000	0.941868
11.640000	0.938510
11.650000	1.009124
11.660000	0.884774
11.670000	0.900187
11.680000	0.951618
11.690000	1.056422
11.700000	1.036144
11.710000	0.844272
11.720000	1.137230
11.730000	0.749252
11.740000	0.970742
11.750000	1.109993
11.760000	0.993879
11.770000	0.904651
11.780000	0.906578
11.790000	0.841442
11.800000	1.050383
11.810000	0.909775
11.820000	1.035964
11.830000	0.888872
11.840000	1.047455
11.850000	0.826558
11.860000	0.875790
11.870000	1.142198
11.880000	0.942459
11.890000	0.802387
11.900000	1.005637
11.910000	0.872377
11.920000	1.097077
11.930000	0.907870
11.940000	1.073197
11.950000	1.110073
11.960000	0.945150
11.970000	1.034342
11.980000	0.990696
11.990000	1.007566
12.000000	0.842346
12.010000	0.922445
12.020000	1.040360
12.030000	1.043987
12.040000	0.937642
12.050000	0.955959
12.060000	0.952520
12.070000	0.943887
12.080000	1.093290
12.090000	0.990338
12.100000	1.113439
12.110000	1.097600
12.120000	0.786923
12.130000	0.899667
12.140000	1.041385
12.150000	0.968992
12.160000	1.017096
12.170000	1.069809
12.180000	0.925311
12.190000	0.999410
12.200000	1.025142
12.210000	1.001901
12.220000	0.915994
12.230000	1.026366
12.240000	0.863652
12.250000	0.997653
12.260000	0.901059
12.270000	0.841931
12.280000	1.108966
12.290000	0.953961
12.300000	0.999221
12.310000	0.939254
12.320000	1.007009
12.330000	1.083443
12.340000	0.932537
12.350000	0.851111
12.360000	0.840020
12.370000	0.900913
12.380000	0.909084
12.390000	0.934524
12.400000	0.925948
12.410000	0.878488
12.420000	0.876469
12.430000	1.023965
12.440000	0.966925
12.450000	1.058332
12.460000	1.071021
12.470000	0.917424
12.480000	0.868708
12.490000	0.885676
12.500000	0.796686
12.510000	0.831130
12.520000	0.920150
12.530000	0.937405
12.540000	0.854664
12.550000	0.876506
12.560000	0.858996
12.570000	0.752639
12.580000	0.892430
12.590000	0.815602
12.600000	1.019460
12.610000	1.000097
12.620000	1.014543
12.630000	1.009019
12.640000	0.676689
12.650000	0.671930
12.660000	0.881027
12.670000	0.861659
12.680000	0.895418
12.690000	0.920685
12.700000	0.848957
12.710000	0.768401
12.720000	0.976217
12.730000	0.834583
12.740000	0.729351
12.750000	0.814621
12.760000	0.771733
12.770000	0.895225
12.780000	0.752914
12.790000	0.748663
12.800000	0.734167
12.810000	0.908650
12.820000	0.677469
12.830000	0.734783
12.840000	0.736830
12.850000	0.687649
12.860000	0.723479
12.870000	0.762203
12.880000	0.738997
12.890000	0.775782
12.900000	0.760288
12.910000	0.699699
12.920000	0.781359
12.930000	0.548944
12.940000	0.679732
12.950000	0.692154
12.960000	0.783632
12.970000	0.730164
12.980000	0.641845
12.990000	0.816960
13.000000	0.820320
13.010000	0.562764
13.020000	0.664619
13.030000	0.828733
13.040000	0.829894
13.050000	0.907721
13.060000	0.685719
13.070000	0.765653
13.080000	0.697356
13.090000	0.716552
13.100000	0.673985
13.110000	0.867331
13.120000	0.706941
13.130000	0.827568
13.140000	0.705937
13.150000	0.812928
13.160000	0.737310
13.170000	0.610454
13.180000	0.648168
13.190000	0.847779
13.200000	0.798987
13.210000	0.716476
13.220000	0.702163
13.230000	0.698601
13.240000	0.925040
13.250000	0.614606
13.260000	0.729368
13.270000	0.700702
13.280000	0.634768
13.290000	0.597737
13.300000	0.544668
13.310000	0.728340
13.320000	0.606113
13.330000	0.703278
13.340000	0.709131
13.350000	0.632990
13.360000	0.536320
13.370000	0.510519
13.380000	0.661838
13.390000	0.707829
13.400000	0.674225
13.410000	0.489193
13.420000	0.610367
13.430000	0.714314
13.440000	0.597128
13.450000	0.668122
13.460000	0.688548
13.470000	0.607981
13.480000	0.686433
13.490000	0.668856
13.500000	0.607405
13.510000	0.574384
13.520000	0.553197
13.530000	0.537278
13.540000	0.475696
13.550000	0.657981
13.560000	0.572701
13.570000	0.543087
13.580000	0.584425
13.590000	0.682446
13.600000	0.484992
13.610000	0.543016
13.620000	0.514864
13.630000	0.708261
13.640000	0.596658
13.650000	0.595751
13.660000	0.724829
13.670000	0.587071
13.680000	0.546181
13.690000	0.550054
13.700000	0.687687
13.710000	0.430191
13.720000	0.630723
13.730000	0.634435
13.740000	0.591635
13.750000	0.705356
13.760000	0.449864
13.770000	0.682804
13.780000	0.472150
13.790000	0.503993
13.800000	0.584146
13.810000	0.650157
13.820000	0.558743
13.830000	0.448824
13.840000	0.450479
13.850000	0.565021
13.860000	0.491759
13.870000	0.475336
13.880000	0.539940
13.890000	0.524737
13.900000	0.681376
13.910000	0.613111
13.920000	0.541339
13.930000	0.627130
13.940000	0.615972
13.950000	0.380476
13.960000	0.488911
13.970000	0.398984
13.980000	0.657638
13.990000	0.380012
14.000000	0.697801
14.010000	0.362921
14.020000	0.460873
14.030000	0.443738
14.040000	0.464177
14.050000	0.448659
14.060000	0.531171
14.070000	0.528299
14.080000	0.630911
14.090000	0.410119
14.100000	0.394887
14.110000	0.563240
14.120000	0.312638
14.130000	0.324526
14.140000	0.417089
14.150000	0.424681
14.160000	0.436793
14.170000	0.437461
14.180000	0.415192
14.190000	0.344817
14.200000	0.464018
14.210000	0.381035
14.220000	0.449950
14.230000	0.491149
14.240000	0.574537
14.250000	0.564518
14.260000	0.345640
14.270000	0.435184
14.280000	0.346276
14.290000	0.489913
14.300000	0.511109
14.310000	0.447339
14.320000	0.500397
14.330000	0.492372
14.340000	0.515243
14.350000	0.276341
14.360000	0.345981
14.370000	0.621109
14.380000	0.594063
14.390000	0.477823
14.400000	0.371732
14.410000	0.389421
14.420000	0.561090
14.430000	0.372909
14.440000	0.431120
14.450000	0.324467
14.460000	0.257247
14.470000	0.392960
14.480000	0.277851
14.490000	0.528370
14.500000	0.558816
14.510000	0.439068
14.520000	0.340551
14.530000	0.392250
14.540000	0.362722
14.550000	0.468502
14.560000	0.312448
14.570000	0.365293
14.580000	0.381717
14.590000	0.288587
14.600000	0.336679
14.610000	0.307482
14.620000	0.383356
14.630000	0.351962
14.640000	0.436402
14.650000	0.555687
14.660000	0.405120
14.670000	0.529295
14.680000	0.526579
14.690000	0.279355
14.700000	0.425546
14.710000	0.371682
14.720000	0.452948
14.730000	0.365728
14.740000	0.276615
14.750000	0.198937
14.760000	0.385185
14.770000	0.240329
14.780000	0.476717
14.790000	0.396821
14.800000	0.416626
14.810000	0.392332
14.820000	0.341203
14.830000	0.291631
14.840000	0.403067
14.850000	0.346211
14.860000	0.313317
14.870000	0.169426
14.880000	0.302174
14.890000	0.344397
14.900000	0.328489
14.910000	0.304165
14.920000	0.238898
14.930000	0.292488
14.940000	0.394668
14.950000	0.418068
14.960000	0.368282
14.970000	0.286797
14.980000	0.210341
14.990000	0.449957
15.000000	0.423584
15.010000	0.315807
15.020000	0.418625
15.030000	0.205490
15.040000	0.190583
15.050000	0.285943
15.060000	0.254403
15.070000	0.424865
15.080000	0.312769
15.090000	0.333931
15.100000	0.324027
15.110000	0.343449
15.120000	0.325111
15.130000	0.238920
15.140000	0.282852
15.150000	0.427208
15.160000	0.269979
15.170000	0.430251
15.180000	0.237099
15.190000	0.084405
15.200000	0.369512
15.210000	0.125542
15.220000	0.252663
15.230000	0.245939
15.240000	0.305681
15.250000	0.334329
15.260000	0.203750
15.270000	0.137002
15.280000	0.244414
15.290000	0.215775
15.300000	0.186991
15.310000	0.268436
15.320000	0.381842
15.330000	0.433149
15.340000	0.384166
15.350000	0.283061
15.360000	0.265949
15.370000	0.298183
15.380000	0.274395
15.390000	0.423035
15.400000	0.480939
15.410000	0.195448
15.420000	0.204603
15.430000	0.370135
15.440000	0.383632
15.450000	0.267715
15.460000	0.257799
15.470000	0.238319
15.480000	0.259864
15.490000	0.331652
15.500000	0.133911
15.510000	0.130694
15.520000	0.415460
15.530000	0.415080
15.540000	0.275052
15.550000	0.191841
15.560000	0.207124
15.570000	0.346803
15.580000	0.311084
15.590000	0.303962
15.600000	0.188411
15.610000	0.244892
15.620000	0.252252
15.630000	0.291721
15.640000	0.209830
15.650000	0.435583
15.660000	0.017792
15.670000	0.315330
15.680000	0.188434
15.690000	0.362855
15.700000	0.173012
15.710000	0.116370
15.720000	0.297613
15.730000	0.416881
15.740000	0.218012
15.750000	0.297622
15.760000	0.189259
15.770000	0.155332
15.780000	0.079256
15.790000	0.177894
15.800000	0.359280
15.810000	0.277162
15.820000	0.390989
15.830000	0.201304
15.840000	0.452188
15.850000	0.278984
15.860000	0.188307
15.870000	0.144734
15.880000	0.282401
15.890000	0.154542
15.900000	0.276892
15.910000	0.131276
15.920000	0.215494
15.930000	0.324060
15.940000	0.232233
15.950000	0.261755
15.960000	0.176056
15.970000	0.314682
15.980000	0.229795
15.990000	0.439302
16.000000	0.265195
16.010000	0.321188
16.020000	0.463782
16.030000	0.091292
16.040000	0.239285
16.050000	0.114145
16.060000	0.213915
16.070000	0.456097
16.080000	0.276220
16.090000	0.386053
16.100000	0.183715
16.110000	0.230577
16.120000	0.178401
16.130000	0.134020
16.140000	0.009586
16.150000	0.207423
16.160000	0.223871
16.170000	0.317006
16.180000	0.162805
16.190000	0.332992
16.200000	0.277363
16.210000	0.183992
16.220000	0.218527
16.230000	0.243079
16.240000	0.198483
16.250000	0.157940
16.260000	0.345418
16.270000	0.134420
16.280000	0.144949
16.290000	0.194991
16.300000	0.292561
16.310000	0.118188
16.320000	0.165160
16.330000	0.182423
16.340000	0.158248
16.350000	0.133090
16.360000	0.219079
16.370000	0.288989
16.380000	0.143242
16.390000	0.433612
16.400000	0.195878
16.410000	0.031876
16.420000	0.138238
16.430000	0.174644
16.440000	0.229985
16.450000	0.067050
16.460000	0.271693
16.470000	0.218240
16.480000	0.191855
16.490000	0.118130
16.500000	0.125548
16.510000	0.302794
16.520000	0.269359
16.530000	0.346682
16.540000	0.334247
16.550000	0.294099
16.560000	0.179212
16.570000	0.225569
16.580000	0.224324
16.590000	0.193073
16.600000	0.061287
16.610000	0.230449
16.620000	0.309502
16.630000	0.231414
16.640000	0.261061
16.650000	0.078638
16.660000	0.140254
16.670000	0.121208
16.680000	0.365227
16.690000	0.339073
16.700000	0.105760
16.710000	0.202676
16.720000	0.240425
16.730000	0.185855
16.740000	0.257721
16.750000	0.297228
16.760000	0.304314
16.770000	0.367604
16.780000	0.167880
16.790000	0.387027
16.800000	0.146076
16.810000	0.244517
16.820000	0.020499
16.830000	0.252908
16.840000	0.116012
16.850000	0.293681
16.860000	0.064809
16.870000	0.283544
16.880000	0.081703
16.890000	0.053690
16.900000	0.143840
16.910000	0.070056
16.920000	0.194603
16.930000	0.112211
16.940000	0.339204
16.950000	0.181429
16.960000	0.207404
16.970000	0.175189
16.980000	-0.166074
16.990000	0.247570
17.000000	0.054419
17.010000	0.237828
17.020000	0.088393
17.030000	0.304042
17.040000	0.268046
17.050000	0.213271
17.060000	0.055736
17.070000	0.181228
17.080000	0.153000
17.090000	0.258900
17.100000	0.046424
17.110000	0.175359
17.120000	0.092543
17.130000	0.119832
17.140000	0.274473
17.150000	0.390952
17.160000	0.187538
17.170000	0.320609
17.180000	0.261352
17.190000	0.347487
17.200000	0.200234
17.210000	0.199460
17.220000	0.194135
17.230000	0.186286
17.240000	0.135217
17.250000	0.064918
17.260000	0.105191
17.270000	0.187869
17.280000	0.076484
17.290000	0.152803
17.300000	0.067425
17.310000	0.254007
17.320000	0.184372
17.330000	0.237481
17.340000	0.168183
17.350000	0.092299
17.360000	0.150127
17.370000	0.057839
17.380000	0.140645
17.390000	0.189313
17.400000	-0.106797
17.410000	0.026745
17.420000	0.175131
17.430000	-0.041345
17.440000	0.172711
17.450000	0.101411
17.460000	0.267957
17.470000	0.153679
17.480000	0.166420
17.490000	0.242018
17.500000	-0.026041
17.510000	0.078004
17.520000	0.217627
17.530000	0.148940
17.540000	-0.098554
17.550000	0.066565
17.560000	0.304904
17.570000	0.118503
17.580000	0.256457
17.590000	0.195727
17.600000	0.214953
17.610000	0.137589
17.620000	0.209644
17.630000	0.293476
17.640000	0.380950
17.650000	-0.063972
17.660000	0.240931
17.670000	0.077762
17.680000	0.175133
17.690000	0.244463
17.700000	0.068102
17.710000	0.322728
17.720000	0.016043
17.730000	0.152242
17.740000	0.011573
17.750000	0.253698
17.760000	0.114055
17.770000	0.137092
17.780000	0.140418
17.790000	0.014838
17.800000	0.011885
17.810000	0.035992
17.820000	0.072750
17.830000	0.107724
17.840000	0.116254
17.850000	0.169516
17.860000	0.136506
17.870000	0.156767
17.880000	0.069604
17.890000	0.212861
17.900000	0.335249
17.910000	0.221852
17.920000	0.151780
17.930000	-0.003539
17.940000	0.069078
17.950000	0.289690
17.960000	0.180870
17.970000	0.162571
17.980000	0.086992
17.990000	0.189631
18.000000	0.119678
18.010000	0.183333
18.020000	0.088293
18.030000	0.148327
18.040000	0.163187
18.050000	0.101186
18.060000	0.118336
18.070000	0.119822
18.080000	0.153404
18.090000	-0.006325
18.100000	0.143804
18.110000	0.120406
18.120000	-0.039192
18.130000	0.155462
18.140000	0.098500
18.150000	0.112442
18.160000	0.230427
18.170000	0.177487
18.180000	0.019202
18.190000	0.049492
18.200000	0.046967
18.210000	0.159203
18.220000	0.233476
18.230000	0.071931
18.240000	0.155724
18.250000	0.319171
18.260000	0.161419
18.270000	-0.002840
18.280000	0.170783
18.290000	0.091606
18.300000	0.202250
18.310000	-0.018674
18.320000	0.095367
18.330000	0.312834
18.340000	-0.062647
18.350000	0.041584
18.360000	0.121242
18.370000	-0.010141
18.380000	0.277894
18.390000	-0.203168
18.400000	0.062522
18.410000	0.010111
18.420000	0.101375
18.430000	0.026269
18.440000	0.115635
18.450000	0.034237
18.460000	0.104527
18.470000	0.187776
18.480000	0.230713
18.490000	0.208594
18.500000	0.146756
18.510000	-0.174988
18.520000	-0.000374
18.530000	0.203321
18.540000	-0.008063
18.550000	0.170101
18.560000	0.125289
18.570000	0.173049
18.580000	0.128489
18.590000	0.039445
18.600000	0.125494
18.610000	-0.036949
18.620000	0.187770
18.630000	0.027687
18.640000	-0.059256
18.650000	0.168120
18.660000	0.225113
18.670000	0.163776
18.680000	0.228007
18.690000	0.092589
18.700000	0.014529
18.710000	0.137367
18.720000	0.010128
18.730000	0.117023
18.740000	0.043625
18.750000	0.240645
18.760000	0.056863
18.770000	0.082113
18.780000	0.206279
18.790000	0.123720
18.800000	0.010595
18.810000	0.089708
18.820000	0.082169
18.830000	0.233404
18.840000	0.134983
18.850000	0.346035
18.860000	-0.140854
18.870000	0.040103
18.880000	0.027506
18.890000	0.051832
18.900000	0.144975
18.910000	0.136791
18.920000	0.202890
18.930000	0.189094
18.940000	-0.033507
18.950000	0.154051
18.960000	0.002170
18.970000	0.131770
18.980000	0.170216
18.990000	0.103058
19.000000	0.174385
19.010000	0.101294
19.020000	0.148140
19.030000	0.000346
19.040000	0.059740
19.050000	0.080298
19.060000	-0.035859
19.070000	0.165094
19.080000	0.091953
19.090000	0.011082
19.100000	0.113816
19.110000	-0.209434
19.120000	0.135883
19.130000	-0.076341
19.140000	0.096388
19.150000	0.211361
19.160000	0.031939
19.170000	0.071296
19.180000	-0.102282
19.190000	0.031872
19.200000	-0.059842
19.210000	-0.068300
19.220000	0.033129
19.230000	-0.077413
19.240000	0.197851
19.250000	0.091878
19.260000	0.185761
19.270000	0.219269
19.280000	0.111650
19.290000	0.036233
19.300000	0.018989
19.310000	0.154892
19.320000	0.180256
19.330000	0.287531
19.340000	0.234515
19.350000	-0.101872
19.360000	0.132477
19.370000	0.056314
19.380000	-0.134068
19.390000	0.078322
19.400000	-0.000153
19.410000	0.136599
19.420000	0.081916
19.430000	-0.025209
19.440000	0.029021
19.450000	0.073502
19.460000	0.038562
19.470000	0.146466
19.480000	0.177816
19.490000	-0.023447
19.500000	0.036345
19.510000	0.004150
19.520000	0.003634
19.530000	-0.048794
19.540000	0.077041
19.550000	0.186902
19.560000	-0.095292
19.570000	0.170161
19.580000	0.004754
19.590000	0.101398
19.600000	0.083303
19.610000	-0.092884
19.620000	0.067002
19.630000	0.093349
19.640000	0.315528
19.650000	0.038485
19.660000	0.211346
19.670000	0.125298
19.680000	0.001068
19.690000	0.063734
19.700000	0.007847
19.710000	0.199677
19.720000	0.109899
19.730000	0.174626
19.740000	0.118498
19.750000	-0.113390
19.760000	0.103624
19.770000	0.104436
19.780000	-0.034223
19.790000	0.108191
19.800000	0.108585
19.810000	0.045279
19.820000	0.079827
19.830000	0.063175
19.840000	0.048145
19.850000	0.011571
19.860000	0.109436
19.870000	-0.120890
19.880000	0.041703
19.890000	0.126591
19.900000	-0.001812
19.910000	-0.035315
19.920000	0.011992
19.930000	0.131258
19.940000	0.055397
19.950000	0.278289
19.960000	0.025442
19.970000	0.052025
19.980000	-0.018033
19.990000	0.094597
20.000000	0.092790
20.010000	-0.070466
20.020000	0.052612
20.030000	-0.089120
20.040000	-0.046484
20.050000	0.029628
20.060000	-0.055132
20.070000	0.058167
20.080000	0.104934
20.090000	0.212721
20.100000	0.072933
20.110000	-0.099523
20.120000	0.095871
20.130000	0.158437
20.140000	0.380743
20.150000	0.081597
20.160000	-0.147507
20.170000	0.011586
20.180000	0.143580
20.190000	-0.047548
20.200000	-0.064055
20.210000	0.076680
20.220000	0.100556
20.230000	0.177661
20.240000	0.152257
20.250000	0.001850
20.260000	-0.090569
20.270000	0.181610
20.280000	0.110345
20.290000	-0.003015
20.300000	0.045141
20.310000	0.007116
20.320000	0.083884
20.330000	0.213452
20.340000	-0.000369
20.350000	-0.007105
20.360000	0.218337
20.370000	-0.016386
20.380000	-0.080648
20.390000	0.114779
20.400000	0.045304
20.410000	-0.014346
20.420000	0.052986
20.430000	-0.100192
20.440000	0.117437
20.450000	-0.058689
20.460000	0.004759
20.470000	0.076295
20.480000	-0.064765
20.490000	-0.071415
20.500000	0.085087
20.510000	0.067292
20.520000	0.122786
20.530000	0.142698
20.540000	0.057423
20.550000	0.075604
20.560000	-0.116954
20.570000	0.119990
20.580000	0.050324
20.590000	-0.037722
20.600000	-0.045006
20.610000	0.112712
20.620000	0.120093
20.630000	0.221420
20.640000	0.043384
20.650000	-0.028089
20.660000	-0.108701
20.670000	0.059211
20.680000	0.171026
20.690000	0.081964
20.700000	0.001590
20.710000	0.040596
20.720000	0.019274
20.730000	0.083935
20.740000	0.028442
20.750000	-0.033605
20.760000	0.138518
20.770000	0.060401
20.780000	-0.022999
20.790000	0.080798
20.800000	0.179831
20.810000	0.169101
20.820000	0.167160
20.830000	0.025906
20.840000	0.026776
20.850000	0.323625
20.860000	0.063059
20.870000	0.002847
20.880000	0.043923
20.890000	-0.045093
20.900000	-0.115366
20.910000	0.125528
20.920000	-0.118190
20.930000	0.132470
20.940000	0.094612
20.950000	0.064637
20.960000	-0.045109
20.970000	-0.002167
20.980000	0.061999
20.990000	0.008001
21.000000	0.079323
21.010000	-0.051421
21.020000	-0.088080
21.030000	0.079856
21.040000	0.001062
21.050000	0.027766
21.060000	0.002862
21.070000	0.118121
21.080000	0.121743
21.090000	0.097250
21.100000	-0.022041
21.110000	-0.076727
21.120000	0.135941
21.130000	-0.059883
21.140000	0.063295
21.150000	-0.170237
21.160000	-0.047904
21.170000	-0.108693
21.180000	0.184560
21.190000	-0.144834
21.200000	0.086164
21.210000	0.114130
21.220000	0.102392
21.230000	-0.112261
21.240000	0.038141
21.250000	-0.010109
21.260000	0.038650
21.270000	-0.177901
21.280000	0.119609
21.290000	0.055757
21.300000	0.110715
21.310000	0.115463
21.320000	0.088356
21.330000	0.159019
21.340000	0.114590
21.350000	-0.191425
21.360000	0.023134
21.370000	-0.149976
21.380000	-0.054542
21.390000	0.102150
21.400000	0.056387
21.410000	-0.000016
21.420000	0.043081
21.430000	0.066454
21.440000	-0.027860
21.450000	0.139395
21.460000	-0.008590
21.470000	-0.112028
21.480000	-0.044515
21.490000	0.026997
21.500000	-0.111843
21.510000	0.105492
21.520000	0.027077
21.530000	-0.022812
21.540000	0.051616
21.550000	-0.001884
21.560000	0.063131
21.570000	0.150333
21.580000	0.034278
21.590000	0.005751
21.600000	0.087004
21.610000	0.071541
21.620000	-0.114677
21.630000	0.099165
21.640000	0.103249
21.650000	0.189536
21.660000	0.020730
21.670000	-0.030871
21.680000	0.036359
21.690000	0.084706
21.700000	-0.052957
21.710000	0.088475
21.720000	0.061261
21.730000	-0.097349
21.740000	0.155200
21.750000	-0.078215
21.760000	-0.047931
21.770000	0.100808
21.780000	0.023764
21.790000	0.099144
21.800000	-0.002213
21.810000	0.004458
21.820000	-0.066046
21.830000	0.160921
21.840000	-0.001914
21.850000	0.107767
21.860000	-0.044416
21.870000	-0.223943
21.880000	-0.029991
21.890000	0.060173
21.900000	0.086940
21.910000	-0.079622
21.920000	0.018420
21.930000	0.042728
21.940000	-0.000684
21.950000	0.083818
21.960000	0.082883
21.970000	0.018354
21.980000	0.266979
21.990000	0.082621
22.000000	0.142792
22.010000	0.161691
22.020000	0.043702
22.030000	0.066312
22.040000	0.108088
22.050000	-0.067433
22.060000	0.120157
22.070000	-0.032885
22.080000	-0.120890
22.090000	-0.090026
22.100000	0.062089
22.110000	0.052087
22.120000	0.072266
22.130000	-0.008971
22.140000	0.037234
22.150000	-0.007981
22.160000	0.051759
22.170000	-0.047953
22.180000	-0.154102
22.190000	-0.103767
22.200000	0.131216
22.210000	-0.028890
22.220000	-0.013638
22.230000	0.032539
22.240000	-0.044335
22.250000	0.098522
22.260000	0.070587
22.270000	0.138258
22.280000	0.124860
22.290000	0.050835
22.300000	0.229747
22.310000	0.057172
22.320000	0.088894
22.330000	0.036586
22.340000	-0.036690
22.350000	-0.102877
22.360000	0.085037
22.370000	-0.170860
22.380000	-0.112652
22.390000	-0.009363
22.400000	0.156729
22.410000	0.135040
22.420000	-0.145972
22.430000	0.027218
22.440000	0.100504
22.450000	0.040406
22.460000	-0.030498
22.470000	0.066650
22.480000	0.317605
22.490000	0.039862
22.500000	0.102737
22.510000	0.081151
22.520000	-0.058859
22.530000	-0.054458
22.540000	0.086553
22.550000	-0.073951
22.560000	-0.107830
22.570000	-0.135475
22.580000	0.140665
22.590000	0.110976
22.600000	-0.043623
22.610000	-0.067371
22.620000	0.042894
22.630000	0.057137
22.640000	0.206797
22.650000	0.048706
22.660000	0.068162
22.670000	0.089042
22.680000	0.187186
22.690000	0.066750
22.700000	0.053404
22.710000	-0.055340
22.720000	0.102140
22.730000	0.082973
22.740000	-0.095835
22.750000	-0.096660
22.760000	0.104915
22.770000	0.126144
22.780000	-0.065919
22.790000	0.094939
22.800000	0.002192
22.810000	-0.013577
22.820000	0.115631
22.830000	0.053729
22.840000	-0.005298
22.850000	-0.068939
22.860000	0.166915
22.870000	-0.024474
22.880000	0.025552
22.890000	0.061174
22.900000	-0.068601
22.910000	-0.082634
22.920000	-0.027997
22.930000	0.034839
22.940000	0.228025
22.950000	0.065908
22.960000	0.095769
22.970000	0.188990
22.980000	-0.044710
22.990000	0.034505
23.000000	0.120629
23.010000	0.145453
23.020000	-0.142617
23.030000	0.021569
23.040000	-0.018647
23.050000	0.020373
23.060000	0.081184
23.070000	0.189999
23.080000	-0.024117
23.090000	0.175130
23.100000	-0.073824
23.110000	0.029237
23.120000	0.168801
23.130000	-0.097815
23.140000	0.022804
23.150000	-0.100549
23.160000	0.018725
23.170000	0.141296
23.180000	0.091721
23.190000	-0.111986
23.200000	-0.095517
23.210000	-0.213530
23.220000	0.072766
23.230000	-0.080151
23.240000	0.053868
23.250000	0.069972
23.260000	0.089725
23.270000	0.035573
23.280000	-0.153542
23.290000	0.170001
23.300000	0.012945
23.310000	0.134982
23.320000	0.081894
23.330000	-0.017711
23.340000	0.008270
23.350000	0.037541
23.360000	0.079578
23.370000	-0.003247
23.380000	0.292414
23.390000	-0.112859
23.400000	-0.128481
23.410000	0.164404
23.420000	0.134605
23.430000	0.058795
23.440000	0.076406
23.450000	0.035883
23.460000	0.074836
23.470000	0.115646
23.480000	0.022986
23.490000	0.032395
23.500000	0.093099
23.510000	0.031204
23.520000	-0.049435
23.530000	0.109476
23.540000	0.061484
23.550000	0.010212
23.560000	0.065999
23.570000	-0.029152
23.580000	-0.065317
23.590000	0.090702
23.600000	0.036897
23.610000	0.016205
23.620000	0.080644
23.630000	0.049576
23.640000	-0.036138
23.650000	0.029605
23.660000	0.056098
23.670000	0.128050
23.680000	-0.086577
23.690000	0.057754
23.700000	-0.187236
23.710000	0.040481
23.720000	0.182411
23.730000	0.050927
23.740000	0.174995
23.750000	0.089702
23.760000	-0.003356
23.770000	0.049455
23.780000	-0.058786
23.790000	0.096934
23.800000	0.170487
23.810000	-0.117606
23.820000	0.060606
23.830000	0.034233
23.840000	0.102060
23.850000	0.092782
23.860000	0.068366
23.870000	0.077952
23.880000	0.086992
23.890000	0.100754
23.900000	0.029160
23.910000	-0.123442
23.920000	-0.013916
23.930000	0.029457
23.940000	0.043943
23.950000	0.121858
23.960000	-0.099342
23.970000	0.101439
23.980000	-0.064209
23.990000	-0.120549
24.000000	-0.063103
24.010000	0.050810
24.020000	-0.050187
24.030000	0.024488
24.040000	0.042604
24.050000	-0.005410
24.060000	-0.074756
24.070000	0.083228
24.080000	0.041254
24.090000	-0.057804
24.100000	0.137169
24.110000	-0.061357
24.120000	0.062944
24.130000	0.028209
24.140000	0.043737
24.150000	0.061167
24.160000	0.003653
24.170000	-0.066564
24.180000	0.007234
24.190000	-0.037109
24.200000	0.031077
24.210000	-0.000713
24.220000	0.183517
24.230000	0.197988
24.240000	0.157698
24.250000	-0.003951
24.260000	0.100606
24.270000	-0.001991
24.280000	0.117000
24.290000	0.052438
24.300000	0.011295
24.310000	-0.156087
24.320000	-0.013562
24.330000	-0.113262
24.340000	0.067192
24.350000	0.192964
24.360000	0.111228
24.370000	0.242531
24.380000	0.148667
24.390000	-0.046259
24.400000	0.178867
24.410000	-0.131542
24.420000	-0.070422
24.430000	-0.011333
24.440000	0.083982
24.450000	0.142535
24.460000	-0.053959
24.470000	0.140138
24.480000	0.004374
24.490000	-0.019136
24.500000	-0.049968
24.510000	-0.027670
24.520000	0.064478
24.530000	-0.028039
24.540000	0.067860
24.550000	0.036773
24.560000	0.022850
24.570000	-0.176478
24.580000	-0.020523
24.590000	-0.053931
24.600000	-0.002520
24.610000	0.025600
24.620000	0.102957
24.630000	0.023740
24.640000	0.105591
24.650000	0.110841
24.660000	0.004429
24.670000	0.175340
24.680000	-0.118630
24.690000	-0.073160
24.700000	0.020145
24.710000	0.105461
24.720000	0.103299
24.730000	0.052700
24.740000	0.015544
24.750000	-0.027523
24.760000	0.077175
24.770000	0.122228
24.780000	-0.033910
24.790000	0.014393
24.800000	-0.048733
24.810000	-0.003395
24.820000	-0.001420
24.830000	-0.058645
24.840000	-0.052018
24.850000	0.039650
24.860000	0.113193
24.870000	-0.014562
24.880000	0.012709
24.890000	-0.014815
24.900000	0.081758
24.910000	-0.037322
24.920000	-0.103284
24.930000	0.087542
24.940000	-0.044989
24.950000	0.066162
24.960000	0.038548
24.970000	-0.139388
24.980000	0.025301
24.990000	-0.128809
25.000000	0.033026
25.010000	-0.009917
25.020000	-0.026159
25.030000	0.158735
25.040000	0.018025
25.050000	0.149075
25.060000	0.089284
25.070000	0.049771
25.080000	0.032761
25.090000	0.073114
25.100000	-0.042472
25.110000	-0.114567
25.120000	0.110370
25.130000	0.179762
25.140000	0.205796
25.150000	-0.050661
25.160000	0.035738
25.170000	0.006891
25.180000	0.049044
25.190000	-0.003589
25.200000	-0.139705
25.210000	0.192562
25.220000	-0.120340
25.230000	0.061992
25.240000	0.162589
25.250000	0.017358
25.260000	-0.031376
25.270000	0.018127
25.280000	-0.053319
25.290000	0.022971
25.300000	-0.165077
25.310000	0.176712
25.320000	0.083548
25.330000	0.034730
25.340000	0.000855
25.350000	-0.057684
25.360000	-0.129844
25.370000	-0.119281
25.380000	0.108593
25.390000	0.010281
25.400000	0.171995
25.410000	0.136211
25.420000	-0.096823
25.430000	-0.009664
25.440000	0.044900
25.450000	-0.102906
25.460000	-0.032517
25.470000	0.174113
25.480000	0.053707
25.490000	0.065909
25.500000	0.111706
25.510000	0.121243
25.520000	-0.052507
25.530000	0.061856
25.540000	0.142034
25.550000	0.122273
25.560000	0.154252
25.570000	0.027728
25.580000	0.067635
25.590000	-0.050447
25.600000	0.037905
25.610000	-0.145849
25.620000	0.226425
25.630000	-0.015018
25.640000	0.110054
25.650000	-0.092357
25.660000	0.069749
25.670000	0.067113
25.680000	0.139278
25.690000	-0.077590
25.700000	-0.106301
25.710000	0.104489
25.720000	-0.086875
25.730000	0.031827
25.740000	0.103747
25.750000	-0.073968
25.760000	-0.000843
25.770000	0.024131
25.780000	-0.168234
25.790000	-0.029810
25.800000	0.021402
25.810000	0.056253
25.820000	0.176013
25.830000	-0.149104
25.840000	-0.070562
25.850000	-0.072889
25.860000	0.023659
25.870000	0.173334
25.880000	0.031143
25.890000	-0.097156
25.900000	0.035582
25.910000	-0.000004
25.920000	0.099776
25.930000	0.125741
25.940000	-0.061994
25.950000	-0.111997
25.960000	0.038465
25.970000	-0.057655
25.980000	-0.017579
25.990000	-0.022668
26.000000	0.117943
26.010000	0.011161
26.020000	0.039843
26.030000	-0.032603
26.040000	0.234762
26.050000	0.066004
26.060000	-0.103502
26.070000	-0.076611
26.080000	0.033125
26.090000	-0.009167
26.100000	0.140092
26.110000	0.020034
26.120000	-0.031707
26.130000	0.013283
26.140000	-0.105346
26.150000	-0.050108
26.160000	0.081681
26.170000	0.093629
26.180000	-0.096905
26.190000	-0.016651
26.200000	0.055364
26.210000	0.024237
26.220000	0.006823
26.230000	-0.180726
26.240000	0.134251
26.250000	0.128028
26.260000	0.181297
26.270000	0.014246
26.280000	0.190653
26.290000	-0.122572
26.300000	0.107284
26.310000	0.116498
26.320000	-0.005087
26.330000	-0.015044
26.340000	0.150847
26.350000	-0.071356
26.360000	0.103160
26.370000	-0.042125
26.380000	0.049917
26.390000	0.004174
26.400000	-0.074164
26.410000	0.034854
26.420000	0.060728
26.430000	0.008551
26.440000	-0.105959
26.450000	0.034540
26.460000	-0.164566
26.470000	0.066762
26.480000	0.058769
26.490000	-0.043033
26.500000	0.163517
26.510000	0.185479
26.520000	-0.177559
26.530000	-0.047212
26.540000	-0.167800
26.550000	-0.130607
26.560000	0.078285
26.570000	0.033288
26.580000	0.133793
26.590000	-0.084647
26.600000	-0.079580
26.610000	-0.084207
26.620000	0.074810
26.630000	-0.115179
26.640000	0.001064
26.650000	0.088410
26.660000	0.031499
26.670000	0.008495
26.680000	0.020690
26.690000	0.220781
26.700000	0.050958
26.710000	0.096748
26.720000	0.095123
26.730000	0.155341
26.740000	-0.038780
26.750000	0.013472
26.760000	0.056206
26.770000	0.104759
26.780000	-0.033620
26.790000	-0.067471
26.800000	0.040733
26.810000	-0.168031
26.820000	-0.133543
26.830000	0.129247
26.840000	-0.019616
26.850000	-0.172560
26.860000	-0.154849
26.870000	-0.016946
26.880000	0.129165
26.890000	-0.117972
26.900000	0.066397
26.910000	0.174578
26.920000	-0.030506
26.930000	-0.079896
26.940000	-0.077573
26.950000	0.036041
26.960000	0.120261
26.970000	0.023998
26.980000	0.178282
26.990000	0.058180
27.000000	-0.030297
27.010000	-0.015496
27.020000	0.187499
27.030000	-0.067997
27.040000	0.042305
27.050000	0.175394
27.060000	-0.003667
27.070000	0.155865
27.080000	0.033557
27.090000	-0.182014
27.100000	0.075538
27.110000	-0.034977
27.120000	-0.015546
27.130000	0.070578
27.140000	0.142520
27.150000	0.190684
27.160000	-0.013721
27.170000	0.212211
27.180000	0.018167
27.190000	0.062748
27.200000	0.170758
27.210000	0.146234
27.220000	-0.088248
27.230000	0.012569
27.240000	-0.117301
27.250000	-0.127473
27.260000	0.098625
27.270000	-0.067248
27.280000	-0.148368
27.290000	0.114258
27.300000	-0.089030
27.310000	-0.053296
27.320000	0.080608
27.330000	-0.004847
27.340000	-0.093296
27.350000	0.027458
27.360000	0.051606
27.370000	-0.091982
27.380000	0.103411
27.390000	0.072006
27.400000	-0.077926
27.410000	0.095476
27.420000	-0.002366
27.430000	0.032800
27.440000	0.068521
27.450000	0.051553
27.460000	-0.088309
27.470000	-0.011497
27.480000	-0.071443
27.490000	0.101344
27.500000	-0.058063
27.510000	-0.036354
27.520000	-0.106098
27.530000	0.109974
27.540000	0.131741
27.550000	0.227713
27.560000	0.031024
27.570000	0.127571
27.580000	0.177861
27.590000	0.101601
27.600000	-0.081015
27.610000	0.014395
27.620000	0.023835
27.630000	-0.026107
27.640000	0.035094
27.650000	0.105715
27.660000	0.174399
27.670000	0.245500
27.680000	0.118587
27.690000	0.115698
27.700000	0.163820
27.710000	0.006349
27.720000	-0.129260
27.730000	-0.176386
27.740000	0.022795
27.750000	0.102113
27.760000	-0.020233
27.770000	-0.016943
27.780000	0.175581
27.790000	-0.066269
27.800000	0.048359
27.810000	0.052082
27.820000	0.004454
27.830000	0.006294
27.840000	-0.069280
27.850000	-0.028287
27.860000	0.022059
27.870000	-0.266870
27.880000	-0.050616
27.890000	-0.045531
27.900000	-0.251107
27.910000	0.018615
27.920000	0.127896
27.930000	0.103788
27.940000	0.152983
27.950000	0.021694
27.960000	-0.224129
27.970000	-0.127808
27.980000	0.151732
27.990000	0.061998
28.000000	0.037729
28.010000	0.140320
28.020000	0.078698
28.030000	0.162770
28.040000	0.083369
28.050000	-0.001412
28.060000	0.041375
28.070000	-0.018436
28.080000	0.007078
28.090000	0.084393
28.100000	0.072299
28.110000	0.060762
28.120000	0.016294
28.130000	0.113052
28.140000	0.120560
28.150000	-0.047363
28.160000	0.183074
28.170000	-0.040196
28.180000	0.097574
28.190000	0.094109
28.200000	0.104997
28.210000	0.193320
28.220000	0.128881
28.230000	-0.064289
28.240000	0.014527
28.250000	-0.017045
28.260000	-0.024670
28.270000	0.099238
28.280000	-0.092854
28.290000	-0.088432
28.300000	0.057615
28.310000	-0.043859
28.320000	0.153305
28.330000	-0.322002
28.340000	0.039882
28.350000	0.044272
28.360000	-0.039531
28.370000	0.185661
28.380000	0.058412
28.390000	-0.032508
28.400000	-0.114417
28.410000	0.057201
28.420000	-0.056060
28.430000	0.219162
28.440000	-0.177362
28.450000	-0.122888
28.460000	0.058813
28.470000	0.063197
28.480000	0.039740
28.490000	0.083192
28.500000	-0.011722
28.510000	0.059906
28.520000	0.147487
28.530000	0.063293
28.540000	0.081870
28.550000	-0.011181
28.560000	0.038161
28.570000	-0.174732
28.580000	-0.089482
28.590000	0.195941
28.600000	-0.008499
28.610000	0.006688
28.620000	0.006181
28.630000	-0.118820
28.640000	0.034823
28.650000	-0.121756
28.660000	-0.227257
28.670000	0.041600
28.680000	0.073077
28.690000	0.020803
28.700000	-0.077620
28.710000	0.141145
28.720000	0.009788
28.730000	0.267521
28.740000	0.134212
28.750000	0.077051
28.760000	-0.054816
28.770000	-0.063323
28.780000	0.139618
28.790000	0.031566
28.800000	-0.099193
28.810000	0.099061
28.820000	-0.017546
28.830000	-0.107401
28.840000	0.138973
28.850000	0.004006
28.860000	0.037233
28.870000	0.072561
28.880000	-0.170147
28.890000	-0.125134
28.900000	-0.058666
28.910000	-0.066050
28.920000	0.000604
28.930000	-0.050475
28.940000	0.115080
28.950000	0.005706
28.960000	0.023378
28.970000	0.018076
28.980000	0.147989
28.990000	0.254830
29.000000	-0.050940
29.010000	0.013528
29.020000	0.057712
29.030000	-0.046767
29.040000	0.041282
29.050000	0.015506
29.060000	-0.019429
29.070000	0.104055
29.080000	-0.010523
29.090000	0.163601
29.100000	0.017193
29.110000	-0.158971
29.120000	0.051390
29.130000	0.048936
29.140000	0.112952
29.150000	-0.066773
29.160000	0.096879
29.170000	0.030381
29.180000	-0.036411
29.190000	-0.174930
29.200000	-0.172610
29.210000	-0.045574
29.220000	0.055521
29.230000	0.137302
29.240000	-0.056541
29.250000	-0.018542
29.260000	-0.021326
29.270000	-0.011678
29.280000	0.083460
29.290000	0.122779
29.300000	0.028368
29.310000	-0.054620
29.320000	-0.180057
29.330000	0.070941
29.340000	-0.101461
29.350000	0.066918
29.360000	-0.007281
29.370000	0.079615
29.380000	-0.117109
29.390000	-0.077815
29.400000	-0.042846
29.410000	-0.042357
29.420000	0.004951
29.430000	0.003922
29.440000	0.004832
29.450000	-0.153272
29.460000	0.016316
29.470000	0.104573
29.480000	-0.008773
29.490000	-0.033753
29.500000	-0.151180
29.510000	0.119720
29.520000	0.131544
29.530000	-0.052579
29.540000	0.172072
29.550000	0.076477
29.560000	0.190158
29.570000	-0.065620
29.580000	-0.069336
29.590000	-0.005455
29.600000	-0.028834
29.610000	-0.134860
29.620000	-0.073310
29.630000	-0.006813
29.640000	-0.032054
29.650000	0.054285
29.660000	0.085768
29.670000	0.092021
29.680000	0.200661
29.690000	0.017390
29.700000	0.150554
29.710000	0.116764
29.720000	-0.122298
29.730000	-0.011592
29.740000	-0.021324
29.750000	-0.109145
29.760000	0.063387
29.770000	0.115058
29.780000	0.031083
29.790000	0.066295
29.800000	0.104077
29.810000	-0.066429
29.820000	-0.006121
29.830000	-0.009271
29.840000	-0.040741
29.850000	0.056577
29.860000	0.020237
29.870000	0.202391
29.880000	0.091127
29.890000	-0.026471
29.900000	-0.067823
29.910000	0.036045
29.920000	-0.017924
29.930000	0.032777
29.940000	0.125855
29.950000	-0.088945
29.960000	0.096475
29.970000	0.097945
29.980000	0.147687
29.990000	0.009101
30.000000	0.041361
30.010000	-0.011162
30.020000	0.052783
30.030000	0.090460
30.040000	0.265623
30.050000	-0.248880
30.060000	0.163342
30.070000	0.179750
30.080000	-0.068135
30.090000	-0.083436
30.100000	-0.004449
30.110000	-0.078940
30.120000	0.147661
30.130000	-0.019147
30.140000	0.008087
30.150000	-0.035535
30.160000	-0.144760
30.170000	-0.010302
30.180000	0.092128
30.190000	-0.012594
30.200000	-0.087490
30.210000	0.007547
30.220000	0.085541
30.230000	0.102609
30.240000	0.021522
30.250000	-0.142636
30.260000	-0.101130
30.270000	-0.030264
30.280000	0.058134
30.290000	-0.202180
30.300000	0.127921
30.310000	0.047404
30.320000	-0.046326
30.330000	0.070625
30.340000	-0.120181
30.350000	0.138673
30.360000	0.201072
30.370000	-0.136313
30.380000	-0.002656
30.390000	0.110787
30.400000	0.000011
30.410000	-0.006007
30.420000	-0.031385
30.430000	-0.018696
30.440000	-0.159773
30.450000	-0.014521
30.460000	-0.165439
30.470000	-0.072474
30.480000	-0.064577
30.490000	0.093275
30.500000	-0.035013
30.510000	0.096398
30.520000	0.063372
30.530000	0.157494
30.540000	0.020350
30.550000	-0.039139
30.560000	0.061800
30.570000	-0.016847
30.580000	0.124959
30.590000	-0.182023
30.600000	-0.010373
30.610000	0.112440
30.620000	0.268989
30.630000	-0.010277
30.640000	0.012071
30.650000	0.335517
30.660000	0.026177
30.670000	-0.163646
30.680000	-0.023525
30.690000	0.123551
30.700000	0.029387
30.710000	-0.043561
30.720000	-0.052656
30.730000	-0.026808
30.740000	0.117065
30.750000	-0.068255
30.760000	0.145644
30.770000	0.021486
30.780000	0.047247
30.790000	-0.135275
30.800000	0.043664
30.810000	-0.026788
30.820000	-0.063497
30.830000	-0.094417
30.840000	-0.037490
30.850000	-0.117376
30.860000	0.031145
30.870000	-0.019688
30.880000	0.100498
30.890000	-0.058096
30.900000	0.125113
30.910000	-0.134525
30.920000	-0.016677
30.930000	-0.067891
30.940000	0.004729
30.950000	-0.193728
30.960000	-0.006426
30.970000	0.029312
30.980000	0.182594
30.990000	-0.084813
31.000000	-0.025306
31.010000	0.031171
31.020000	0.049848
31.030000	-0.017196
31.040000	-0.054541
31.050000	0.098185
31.060000	-0.066474
31.070000	0.073675
31.080000	-0.031946
31.090000	-0.030182
31.100000	-0.081266
31.110000	-0.050531
31.120000	0.087303
31.130000	0.021197
31.140000	0.064649
31.150000	0.043207
31.160000	-0.129876
31.170000	-0.098850
31.180000	0.029509
31.190000	0.027351
31.200000	-0.230173
31.210000	-0.173613
31.220000	-0.026400
31.230000	0.055723
31.240000	0.060316
31.250000	0.010385
31.260000	0.065696
31.270000	-0.014530
31.280000	-0.040987
31.290000	-0.120925
31.300000	0.072313
31.310000	0.031975
31.320000	0.051667
31.330000	-0.034045
31.340000	0.047787
31.350000	0.065708
31.360000	-0.212736
31.370000	-0.021016
31.380000	-0.005977
31.390000	-0.141604
31.400000	0.045942
31.410000	0.065508
31.420000	-0.115705
31.430000	-0.140101
31.440000	0.044344
31.450000	0.201336
31.460000	-0.091896
31.470000	-0.142024
31.480000	-0.010346
31.490000	-0.152435
31.500000	0.021627
31.510000	-0.078430
31.520000	0.056797
31.530000	0.104073
31.540000	-0.052989
31.550000	0.043375
31.560000	0.051188
31.570000	0.086914
31.580000	-0.065280
31.590000	0.224098
31.600000	-0.126596
31.610000	-0.110535
31.620000	0.119511
31.630000	0.029701
31.640000	0.008945
31.650000	0.039612
31.660000	0.040610
31.670000	-0.088077
31.680000	0.000134
31.690000	0.099925
31.700000	-0.103559
31.710000	-0.011754
31.720000	-0.091105
31.730000	0.008782
31.740000	-0.071447
31.750000	-0.093827
31.760000	0.007285
31.770000	0.003828
31.780000	0.080834
31.790000	-0.114568
31.800000	-0.020702
31.810000	0.157603
31.820000	-0.035951
31.830000	0.013756
31.840000	0.039560
31.850000	0.014657
31.860000	-0.054150
31.870000	-0.042678
31.880000	-0.034017
31.890000	-0.057642
31.900000	0.132134
31.910000	0.211460
31.920000	-0.122498
31.930000	0.014623
31.940000	0.038628
31.950000	-0.027041
31.960000	-0.016489
31.970000	-0.093160
31.980000	-0.077564
31.990000	-0.046781
32.000000	-0.072422
32.010000	0.005346
32.020000	-0.173457
32.030000	0.277628
32.040000	0.159481
32.050000	0.091264
32.060000	-0.064480
32.070000	-0.130550
32.080000	-0.164940
32.090000	-0.066713
32.100000	0.059516
32.110000	-0.062894
32.120000	0.125497
32.130000	-0.107922
32.140000	0.085294
32.150000	-0.007641
32.160000	-0.019638
32.170000	-0.100872
32.180000	-0.106641
32.190000	0.032216
32.200000	0.119464
32.210000	0.005363
32.220000	-0.072838
32.230000	-0.010476
32.240000	-0.013177
32.250000	0.137975
32.260000	0.016853
32.270000	0.046456
32.280000	-0.126385
32.290000	-0.111937
32.300000	0.099025
32.310000	-0.071032
32.320000	0.066905
32.330000	0.028393
32.340000	-0.021937
32.350000	-0.096200
32.360000	-0.262401
32.370000	0.015655
32.380000	-0.076047
32.390000	0.005949
32.400000	0.009988
32.410000	0.116667
32.420000	0.156372
32.430000	-0.069367
32.440000	-0.066882
32.450000	0.037553
32.460000	-0.091934
32.470000	0.128378
32.480000	0.157148
32.490000	-0.051530
32.500000	0.035827
32.510000	-0.139563
32.520000	-0.029393
32.530000	0.098393
32.540000	-0.189294
32.550000	0.146038
32.560000	0.077455
32.570000	0.095217
32.580000	0.126102
32.590000	0.092876
32.600000	0.172977
32.610000	0.028185
32.620000	0.052883
32.630000	-0.004659
32.640000	-0.091859
32.650000	0.027443
32.660000	0.008368
32.670000	0.191102
32.680000	0.080834
32.690000	0.146453
32.700000	-0.051533
32.710000	-0.018945
32.720000	-0.048608
32.730000	0.012983
32.740000	0.028335
32.750000	-0.086688
32.760000	0.074133
32.770000	0.091043
32.780000	0.011917
32.790000	0.050897
32.800000	-0.077179
32.810000	0.091888
32.820000	-0.050084
32.830000	0.033585
32.840000	0.088778
32.850000	0.007632
32.860000	-0.114694
32.870000	-0.056939
32.880000	-0.060773
32.890000	-0.130536
32.900000	-0.102541
32.910000	-0.005809
32.920000	0.077435
32.930000	-0.081840
32.940000	-0.015842
32.950000	0.007436
32.960000	-0.101632
32.970000	-0.014911
32.980000	-0.129443
32.990000	0.101842
33.000000	0.024064
33.010000	-0.191648
33.020000	-0.015190
33.030000	0.087414
33.040000	0.005497
33.050000	-0.063220
33.060000	0.040916
33.070000	0.048619
33.080000	0.141355
33.090000	-0.139262
33.100000	-0.055696
33.110000	-0.214236
33.120000	-0.009522
33.130000	-0.268354
33.140000	0.046541
33.150000	0.001304
33.160000	-0.007361
33.170000	-0.077345
33.180000	0.199534
33.190000	-0.096870
33.200000	-0.067215
33.210000	0.094556
33.220000	0.069445
33.230000	0.003452
33.240000	-0.002265
33.250000	-0.158482
33.260000	-0.167683
33.270000	0.016164
33.280000	0.032335
33.290000	0.151534
33.300000	-0.026811
33.310000	0.109357
33.320000	0.013696
33.330000	-0.046216
33.340000	0.001632
33.350000	-0.046091
33.360000	-0.049518
33.370000	0.062602
33.380000	0.028331
33.390000	-0.135540
33.400000	-0.005310
33.410000	-0.083470
33.420000	0.031565
33.430000	0.053662
33.440000	0.061407
33.450000	0.030326
33.460000	0.156974
33.470000	-0.218472
33.480000	-0.165998
33.490000	-0.027784
33.500000	-0.007013
33.510000	-0.035499
33.520000	0.142357
33.530000	-0.046097
33.540000	-0.102210
33.550000	0.011066
33.560000	0.103586
33.570000	-0.038845
33.580000	0.006935
33.590000	0.081613
33.600000	0.017837
33.610000	0.165829
33.620000	-0.054625
33.630000	0.081189
33.640000	0.101864
33.650000	-0.104831
33.660000	-0.150295
33.670000	-0.005228
33.680000	-0.047572
33.690000	-0.026788
33.700000	0.050386
33.710000	0.118864
33.720000	0.143079
33.730000	-0.037202
33.740000	0.102987
33.750000	0.078365
33.760000	0.048193
33.770000	0.071445
33.780000	0.011292
33.790000	0.070305
33.800000	0.067283
33.810000	0.164468
33.820000	-0.125385
33.830000	-0.087178
33.840000	-0.045651
33.850000	0.002429
33.860000	-0.195088
33.870000	-0.018730
33.880000	0.087943
33.890000	0.150738
33.900000	0.073600
33.910000	-0.069587
33.920000	-0.035402
33.930000	-0.066844
33.940000	-0.039659
33.950000	-0.022436
33.960000	0.149503
33.970000	-0.040546
33.980000	-0.145588
33.990000	-0.035076
34.000000	-0.080352
34.010000	0.076677
34.020000	0.053842
34.030000	0.041802
34.040000	-0.048372
34.050000	0.001581
34.060000	0.096789
34.070000	0.016716
34.080000	0.084289
34.090000	-0.058456
34.100000	0.144036
34.110000	-0.161045
34.120000	-0.020230
34.130000	0.159979
34.140000	-0.003580
34.150000	-0.038009
34.160000	0.098076
34.170000	0.054796
34.180000	-0.000884
34.190000	-0.111250
34.200000	0.192764
34.210000	0.030034
34.220000	-0.075082
34.230000	-0.045810
34.240000	-0.034079
34.250000	-0.121759
34.260000	-0.061449
34.270000	-0.198915
34.280000	0.085635
34.290000	-0.050448
34.300000	0.021418
34.310000	0.100233
34.320000	-0.166576
34.330000	0.083130
34.340000	-0.041038
34.350000	-0.181551
34.360000	0.014613
34.370000	0.073143
34.380000	-0.064197
34.390000	-0.033800
34.400000	-0.098303
34.410000	-0.093734
34.420000	0.058612
34.430000	-0.159370
34.440000	-0.026691
34.450000	0.114949
34.460000	-0.105841
34.470000	-0.081548
34.480000	0.007025
34.490000	0.055238
34.500000	0.102766
34.510000	0.010261
34.520000	-0.185287
34.530000	0.033775
34.540000	0.072059
34.550000	0.029705
34.560000	0.064169
34.570000	0.005873
34.580000	-0.103897
34.590000	0.031616
34.600000	0.175846
34.610000	0.025154
34.620000	-0.001668
34.630000	0.007354
34.640000	0.014008
34.650000	-0.018289
34.660000	0.100189
34.670000	0.051377
34.680000	-0.086353
34.690000	-0.040557
34.700000	0.016794
34.710000	-0.012491
34.720000	0.174829
34.730000	-0.029487
34.740000	-0.043496
34.750000	-0.035285
34.760000	-0.107935
34.770000	0.043909
34.780000	0.058055
34.790000	0.018574
34.800000	0.150748
34.810000	-0.023103
34.820000	-0.148896
34.830000	0.011424
34.840000	0.066893
34.850000	0.170677
34.860000	0.009282
34.870000	0.103803
34.880000	0.140967
34.890000	-0.118763
34.900000	0.002960
34.910000	-0.000809
34.920000	0.097734
34.930000	-0.041599
34.940000	0.066722
34.950000	-0.044694
34.960000	-0.117384
34.970000	-0.015664
34.980000	0.042471
34.990000	0.034407
35.000000	-0.184309
35.010000	-0.146253
35.020000	-0.049323
35.030000	-0.095932
35.040000	-0.017496
35.050000	0.209418
35.060000	-0.002808
35.070000	0.016951
35.080000	-0.080804
35.090000	0.078167
35.100000	0.072373
35.110000	-0.089904
35.120000	-0.056721
35.130000	-0.083771
35.140000	0.204408
35.150000	0.049773
35.160000	0.081831
35.170000	0.165290
35.180000	0.008243
35.190000	0.088390
35.200000	-0.139939
35.210000	-0.052302
35.220000	0.001046
35.230000	-0.109476
35.240000	0.108329
35.250000	0.119640
35.260000	-0.052740
35.270000	0.069805
35.280000	-0.020426
35.290000	-0.023621
35.300000	-0.156034
35.310000	0.150963
35.320000	-0.057538
35.330000	-0.040072
35.340000	0.058269
35.350000	0.141584
35.360000	-0.065110
35.370000	-0.180041
35.380000	-0.241345
35.390000	0.007398
35.400000	-0.041497
35.410000	0.078861
35.420000	0.022814
35.430000	-0.005784
35.440000	-0.013421
35.450000	0.006349
35.460000	-0.065479
35.470000	-0.122764
35.480000	-0.045869
35.490000	-0.063428
35.500000	0.067261
35.510000	-0.128997
35.520000	-0.215783
35.530000	0.026913
35.540000	0.125458
35.550000	-0.087299
35.560000	0.063782
35.570000	0.058674
35.580000	0.031834
35.590000	-0.105828
35.600000	0.119410
35.610000	-0.086117
35.620000	0.027975
35.630000	0.002524
35.640000	-0.017740
35.650000	0.051891
35.660000	-0.042812
35.670000	0.126214
35.680000	-0.027564
35.690000	0.057959
35.700000	-0.039484
35.710000	0.033890
35.720000	0.096405
35.730000	-0.020359
35.740000	-0.191387
35.750000	-0.007640
35.760000	-0.023763
35.770000	-0.080023
35.780000	0.096481
35.790000	0.027260
35.800000	0.236742
35.810000	-0.094816
35.820000	-0.079015
35.830000	0.029547
35.840000	0.012648
35.850000	-0.099674
35.860000	-0.196877
35.870000	0.024383
35.880000	-0.022594
35.890000	-0.078736
35.900000	0.042954
35.910000	0.061039
35.920000	0.046118
35.930000	-0.187876
35.940000	-0.106184
35.950000	0.054997
35.960000	-0.037471
35.970000	0.017560
35.980000	-0.044095
35.990000	-0.064077
36.000000	-0.009113
36.010000	-0.059864
36.020000	0.009716
36.030000	-0.012791
36.040000	0.028063
36.050000	-0.018892
36.060000	-0.090905
36.070000	-0.090859
36.080000	0.024233
36.090000	-0.085625
36.100000	0.077134
36.110000	-0.118883
36.120000	-0.125822
36.130000	0.019765
36.140000	-0.007648
36.150000	-0.167437
36.160000	-0.114137
36.170000	0.076765
36.180000	0.008375
36.190000	-0.135857
36.200000	0.112407
36.210000	-0.053963
36.220000	-0.023935
36.230000	0.010348
36.240000	-0.014520
36.250000	-0.108511
36.260000	0.095327
36.270000	-0.263492
36.280000	-0.045627
36.290000	0.029474
36.300000	0.063864
36.310000	-0.137835
36.320000	0.000363
36.330000	0.031428
36.340000	-0.327945
36.350000	0.082483
36.360000	0.010314
36.370000	0.042917
36.380000	-0.058271
36.390000	-0.003112
36.400000	-0.074818
36.410000	-0.024939
36.420000	0.149295
36.430000	-0.102559
36.440000	-0.005634
36.450000	0.054066
36.460000	0.154314
36.470000	-0.041499
36.480000	-0.169437
36.490000	-0.145073
36.500000	-0.086355
36.510000	0.127256
36.520000	0.009479
36.530000	0.051409
36.540000	0.007256
36.550000	-0.111349
36.560000	-0.056384
36.570000	-0.147359
36.580000	-0.228884
36.590000	-0.004547
36.600000	0.078262
36.610000	-0.070384
36.620000	-0.113571
36.630000	0.059091
36.640000	-0.102092
36.650000	0.122388
36.660000	-0.158879
36.670000	0.088168
36.680000	0.133158
36.690000	-0.063487
36.700000	0.026809
36.710000	-0.039505
36.720000	-0.056137
36.730000	0.005578
36.740000	-0.024738
36.750000	-0.071521
36.760000	0.146865
36.770000	-0.103933
36.780000	-0.053238
36.790000	-0.035283
36.800000	-0.118744
36.810000	-0.039602
36.820000	0.045757
36.830000	-0.142068
36.840000	0.096933
36.850000	0.019922
36.860000	0.024007
36.870000	-0.143938
36.880000	-0.025824
36.890000	0.063408
36.900000	-0.120040
36.910000	-0.001986
36.920000	0.084464
36.930000	0.019515
36.940000	-0.000784
36.950000	-0.136266
36.960000	-0.114137
36.970000	-0.096052
36.980000	-0.093234
36.990000	0.069624
37.000000	0.098994
37.010000	0.018849
37.020000	-0.099561
37.030000	-0.083816
37.040000	-0.184711
37.050000	0.053369
37.060000	-0.023073
37.070000	0.025846
37.080000	0.097713
37.090000	-0.094787
37.100000	-0.113703
37.110000	-0.053201
37.120000	0.033516
37.130000	0.065230
37.140000	0.119652
37.150000	-0.090570
37.160000	-0.034766
37.170000	-0.085632
37.180000	0.045770
37.190000	0.210908
37.200000	0.099525
37.210000	0.085604
37.220000	-0.032576
37.230000	-0.008083
37.240000	-0.198003
37.250000	0.020582
37.260000	0.016975
37.270000	-0.101935
37.280000	0.029039
37.290000	-0.166007
37.300000	0.080402
37.310000	-0.136723
37.320000	0.091343
37.330000	0.121069
37.340000	-0.066615
37.350000	-0.001610
37.360000	0.000995
37.370000	0.018569
37.380000	-0.216704
37.390000	-0.073156
37.400000	0.012682
37.410000	-0.039688
37.420000	-0.024069
37.430000	0.137816
37.440000	-0.150927
37.450000	-0.051083
37.460000	-0.051959
37.470000	-0.085527
37.480000	-0.027874
37.490000	-0.094716
